Bias Voltage[V],Measure Voltage [V],Meaure Current [A],Max Amp [mV]
0.0,0.0874301,-1.75825e-08,176.0
0.1,0.00988207,-8.15678e-09,180.0
0.2,0.110058,-5.03755e-09,188.0
0.3,0.299984,4.81009e-10,188.0
0.4,0.399978,1.0705e-09,192.0
0.5,0.499982,3.94678e-09,192.0
0.6,0.599983,1.92654e-09,196.0
0.7,0.699979,3.01647e-09,196.0
0.8,0.799979,6.13606e-09,196.0
0.9,0.89998,4.27949e-09,200.0
